Freq (hertz)	SPL (dB)	WPhase (deg)
10.00   	64.79   	154.41  
10.14   	64.92   	154.01  
10.29   	65.04   	153.61  
10.44   	65.17   	153.21  
10.59   	65.29   	152.79  
10.74   	65.42   	152.37  
10.90   	65.54   	151.94  
11.05   	65.66   	151.50  
11.21   	65.79   	151.06  
11.37   	65.91   	150.61  
11.54   	66.04   	150.15  
11.70   	66.16   	149.68  
11.87   	66.29   	149.20  
12.04   	66.41   	148.72  
12.22   	66.54   	148.22  
12.39   	66.66   	147.72  
12.57   	66.78   	147.21  
12.75   	66.91   	146.69  
12.94   	67.03   	146.16  
13.12   	67.16   	145.62  
13.31   	67.28   	145.07  
13.50   	67.41   	144.51  
13.70   	67.53   	143.94  
13.89   	67.66   	143.36  
14.10   	67.78   	142.77  
14.30   	67.91   	142.17  
14.50   	68.03   	141.56  
14.71   	68.16   	140.93  
14.92   	68.28   	140.30  
15.14   	68.40   	139.65  
15.36   	68.53   	138.99  
15.58   	68.65   	138.32  
15.80   	68.78   	137.63  
16.03   	68.90   	136.94  
16.26   	69.03   	136.23  
16.50   	69.15   	135.51  
16.73   	69.28   	134.77  
16.98   	69.40   	134.02  
17.22   	69.53   	133.26  
17.47   	69.65   	132.48  
17.72   	69.78   	131.69  
17.97   	69.90   	130.88  
18.23   	70.03   	130.06  
18.50   	70.15   	129.22  
18.76   	70.28   	128.37  
19.03   	70.40   	127.50  
19.31   	70.53   	126.62  
19.59   	70.65   	125.72  
19.87   	70.78   	124.80  
20.15   	70.90   	123.87  
20.44   	71.03   	122.92  
20.74   	71.15   	121.96  
21.04   	71.28   	120.98  
21.34   	71.40   	119.98  
21.65   	71.53   	118.97  
21.96   	71.65   	117.94  
22.28   	71.78   	116.89  
22.60   	71.90   	115.82  
22.92   	72.03   	114.74  
23.25   	72.15   	113.65  
23.59   	72.28   	112.53  
23.93   	72.40   	111.40  
24.27   	72.53   	110.25  
24.62   	72.65   	109.09  
24.98   	72.78   	107.91  
25.34   	72.90   	106.72  
25.70   	73.03   	105.51  
26.07   	73.15   	104.29  
26.45   	73.28   	103.05  
26.83   	73.41   	101.80  
27.21   	73.53   	100.54  
27.61   	73.66   	99.26   
28.00   	73.78   	97.98   
28.41   	73.91   	96.68   
28.82   	74.03   	95.37   
29.23   	74.16   	94.05   
29.65   	74.29   	92.72   
30.08   	74.41   	91.39   
30.51   	74.54   	90.04   
30.95   	74.66   	88.69   
31.40   	74.79   	87.34   
31.85   	74.92   	85.98   
32.31   	75.04   	84.61   
32.77   	75.17   	83.25   
33.25   	75.29   	81.88   
33.72   	75.42   	80.51   
34.21   	75.55   	79.14   
34.70   	75.67   	77.77   
35.20   	75.80   	76.41   
35.71   	75.93   	75.04   
36.22   	76.05   	73.69   
36.75   	76.18   	72.33   
37.28   	76.31   	70.98   
37.81   	76.43   	69.64   
38.36   	76.56   	68.30   
38.91   	76.69   	66.97   
39.47   	76.81   	65.65   
40.04   	76.94   	64.34   
40.62   	77.07   	63.03   
41.20   	77.20   	61.74   
41.79   	77.32   	60.46   
42.40   	77.45   	59.18   
43.01   	77.58   	57.92   
43.63   	77.71   	56.67   
44.26   	77.83   	55.43   
44.89   	77.96   	54.21   
45.54   	78.09   	52.99   
46.20   	78.22   	51.79   
46.86   	78.35   	50.60   
47.54   	78.47   	49.43   
48.22   	78.60   	48.26   
48.91   	78.73   	47.11   
49.62   	78.86   	45.97   
50.33   	78.99   	44.85   
51.06   	79.12   	43.73   
51.79   	79.25   	42.63   
52.54   	79.38   	41.54   
53.30   	79.51   	40.47   
54.07   	79.64   	39.40   
54.84   	79.77   	38.35   
55.63   	79.90   	37.30   
56.44   	80.03   	36.27   
57.25   	80.16   	35.25   
58.07   	80.29   	34.24   
58.91   	80.42   	33.24   
59.76   	80.55   	32.25   
60.62   	80.68   	31.27   
61.49   	80.81   	30.30   
62.38   	80.94   	29.33   
63.28   	81.07   	28.38   
64.19   	81.21   	27.43   
65.11   	81.34   	26.49   
66.05   	81.47   	25.56   
67.00   	81.60   	24.63   
67.97   	81.73   	23.71   
68.95   	81.87   	22.80   
69.94   	82.00   	21.89   
70.95   	82.13   	20.99   
71.97   	82.27   	20.09   
73.01   	82.40   	19.20   
74.06   	82.54   	18.31   
75.12   	82.67   	17.42   
76.21   	82.81   	16.54   
77.30   	82.94   	15.66   
78.42   	83.08   	14.78   
79.55   	83.21   	13.90   
80.69   	83.35   	13.03   
81.85   	83.49   	12.15   
83.03   	83.62   	11.28   
84.23   	83.76   	10.41   
85.44   	83.90   	9.53    
86.67   	84.04   	8.66    
87.92   	84.18   	7.79    
89.19   	84.32   	6.92    
90.47   	84.46   	6.05    
91.78   	84.60   	5.18    
93.10   	84.74   	4.32    
94.44   	84.88   	3.47    
95.80   	85.02   	2.63    
97.18   	85.16   	1.82    
98.58   	85.30   	1.04    
100.00  	85.45   	0.33    
101.44  	85.59   	-0.27   
102.90  	85.73   	-0.67   
104.38  	85.88   	-0.64   
105.89  	86.02   	0.52    
107.41  	86.17   	6.36    
108.96  	86.32   	97.96   
110.53  	86.46   	158.29  
112.12  	86.61   	162.80  
113.74  	86.76   	163.56  
115.38  	86.91   	163.29  
117.04  	87.06   	162.56  
118.72  	87.21   	161.58  
120.43  	87.36   	160.42  
122.17  	87.52   	159.13  
123.93  	87.67   	157.73  
125.71  	87.82   	156.22  
127.52  	87.98   	154.61  
129.36  	88.14   	152.90  
131.22  	88.29   	151.08  
133.11  	88.45   	149.15  
135.03  	88.61   	147.11  
136.98  	88.77   	144.94  
138.95  	88.93   	142.64  
140.95  	89.09   	140.19  
142.98  	89.26   	137.60  
145.04  	89.42   	134.84  
147.13  	89.59   	131.91  
149.25  	89.76   	128.80  
151.40  	89.93   	125.49  
153.58  	90.10   	122.00  
155.79  	90.27   	118.31  
158.04  	90.44   	114.43  
160.31  	90.61   	110.36  
162.62  	90.79   	106.13  
164.96  	90.97   	101.75  
167.34  	91.15   	97.25   
169.75  	91.33   	92.67   
172.20  	91.51   	88.04   
174.68  	91.69   	83.42   
177.19  	91.88   	78.82   
179.75  	92.07   	74.31   
182.33  	92.26   	69.91   
184.96  	92.45   	65.64   
187.63  	92.65   	61.53   
190.33  	92.84   	57.60   
193.07  	93.04   	53.85   
195.85  	93.24   	50.27   
198.67  	93.44   	46.88   
201.53  	93.65   	43.66   
204.44  	93.86   	40.61   
207.38  	94.07   	37.71   
210.37  	94.28   	34.95   
213.40  	94.50   	32.33   
216.47  	94.72   	29.83   
219.59  	94.94   	27.44   
222.75  	95.16   	25.15   
225.96  	95.39   	22.96   
229.22  	95.62   	20.84   
232.52  	95.85   	18.79   
235.87  	96.09   	16.81   
239.27  	96.33   	14.88   
242.71  	96.57   	13.00   
246.21  	96.82   	11.16   
249.76  	97.07   	9.35    
253.35  	97.32   	7.57    
257.00  	97.57   	5.81    
260.70  	97.83   	4.07    
264.46  	98.10   	2.34    
268.27  	98.36   	0.61    
272.13  	98.63   	-1.11   
276.05  	98.90   	-2.84   
280.03  	99.17   	-4.58   
284.06  	99.45   	-6.33   
288.16  	99.72   	-8.11   
292.31  	100.00  	-9.91   
296.52  	100.28  	-11.73  
300.79  	100.56  	-13.59  
305.12  	100.84  	-15.49  
309.52  	101.12  	-17.43  
313.97  	101.40  	-19.42  
318.50  	101.67  	-21.46  
323.08  	101.95  	-23.56  
327.74  	102.21  	-25.72  
332.46  	102.47  	-27.95  
337.25  	102.72  	-30.25  
342.11  	102.96  	-32.61  
347.03  	103.19  	-35.06  
352.03  	103.41  	-37.58  
357.10  	103.61  	-40.19  
362.25  	103.80  	-42.87  
367.47  	103.96  	-45.63  
372.76  	104.11  	-48.47  
378.13  	104.24  	-51.39  
383.58  	104.34  	-54.37  
389.10  	104.43  	-57.42  
394.71  	104.49  	-60.52  
400.39  	104.53  	-63.66  
406.16  	104.55  	-66.84  
412.01  	104.55  	-70.04  
417.94  	104.53  	-73.25  
423.96  	104.49  	-76.45  
430.07  	104.44  	-79.64  
436.27  	104.37  	-82.79  
442.55  	104.30  	-85.91  
448.93  	104.21  	-88.96  
455.39  	104.12  	-91.96  
461.95  	104.01  	-94.88  
468.61  	103.91  	-97.73  
475.36  	103.80  	-100.50 
482.20  	103.69  	-103.18 
489.15  	103.58  	-105.77 
496.19  	103.47  	-108.27 
503.34  	103.36  	-110.69 
510.59  	103.26  	-113.02 
517.95  	103.16  	-115.28 
525.41  	103.06  	-117.45 
532.98  	102.97  	-119.54 
540.65  	102.89  	-121.57 
548.44  	102.81  	-123.53 
556.34  	102.73  	-125.42 
564.36  	102.67  	-127.26 
572.48  	102.61  	-129.05 
580.73  	102.56  	-130.79 
589.10  	102.51  	-132.50 
597.58  	102.48  	-134.16 
606.19  	102.45  	-135.79 
614.92  	102.44  	-137.40 
623.78  	102.43  	-138.99 
632.76  	102.43  	-140.57 
641.88  	102.43  	-142.13 
651.13  	102.45  	-143.70 
660.50  	102.48  	-145.26 
670.02  	102.52  	-146.84 
679.67  	102.56  	-148.43 
689.46  	102.62  	-150.05 
699.39  	102.68  	-151.69 
709.47  	102.75  	-153.36 
719.69  	102.84  	-155.08 
730.05  	102.93  	-156.85 
740.57  	103.02  	-158.68 
751.24  	103.13  	-160.57 
762.06  	103.24  	-162.54 
773.03  	103.36  	-164.58 
784.17  	103.48  	-166.72 
795.47  	103.61  	-168.96 
806.92  	103.74  	-171.30 
818.55  	103.87  	-173.75 
830.34  	103.99  	-176.33 
842.30  	104.12  	-179.03 
854.43  	104.24  	178.14  
866.74  	104.35  	175.18  
879.22  	104.46  	172.09  
891.89  	104.55  	168.88  
904.74  	104.63  	165.54  
917.77  	104.70  	162.09  
930.99  	104.74  	158.55  
944.40  	104.78  	154.92  
958.00  	104.79  	151.23  
971.80  	104.79  	147.49  
985.80  	104.77  	143.73  
1000.00 	104.74  	139.96  
1014.40 	104.70  	136.20  
1029.02 	104.65  	132.46  
1043.84 	104.60  	128.76  
1058.88 	104.54  	125.09  
1074.13 	104.49  	121.47  
1089.60 	104.44  	117.89  
1105.30 	104.39  	114.34  
1121.22 	104.36  	110.81  
1137.37 	104.33  	107.30  
1153.75 	104.32  	103.77  
1170.37 	104.32  	100.22  
1187.23 	104.34  	96.63   
1204.33 	104.37  	92.96   
1221.68 	104.41  	89.21   
1239.28 	104.47  	85.34   
1257.13 	104.53  	81.34   
1275.23 	104.60  	77.20   
1293.60 	104.67  	72.89   
1312.24 	104.74  	68.43   
1331.14 	104.80  	63.80   
1350.31 	104.85  	59.03   
1369.76 	104.88  	54.14   
1389.50 	104.89  	49.15   
1409.51 	104.88  	44.11   
1429.81 	104.86  	39.04   
1450.41 	104.81  	34.00   
1471.30 	104.75  	29.01   
1492.50 	104.69  	24.10   
1513.99 	104.62  	19.30   
1535.80 	104.55  	14.61   
1557.93 	104.49  	10.02   
1580.37 	104.45  	5.53    
1603.13 	104.41  	1.11    
1626.22 	104.40  	-3.28   
1649.65 	104.41  	-7.66   
1673.41 	104.44  	-12.09  
1697.52 	104.48  	-16.59  
1721.97 	104.54  	-21.21  
1746.77 	104.62  	-25.98  
1771.93 	104.69  	-30.92  
1797.46 	104.77  	-36.06  
1823.35 	104.84  	-41.40  
1849.61 	104.90  	-46.93  
1876.26 	104.94  	-52.63  
1903.28 	104.96  	-58.45  
1930.70 	104.95  	-64.36  
1958.51 	104.93  	-70.31  
1986.72 	104.90  	-76.26  
2015.34 	104.85  	-82.19  
2044.37 	104.81  	-88.10  
2073.82 	104.77  	-93.98  
2103.69 	104.75  	-99.88  
2133.99 	104.74  	-105.84 
2164.73 	104.76  	-111.90 
2195.91 	104.78  	-118.11 
2227.54 	104.83  	-124.53 
2259.63 	104.87  	-131.17 
2292.18 	104.91  	-138.05 
2325.20 	104.94  	-145.15 
2358.69 	104.94  	-152.40 
2392.67 	104.93  	-159.74 
2427.13 	104.89  	-167.09 
2462.09 	104.84  	-174.38 
2497.56 	104.78  	178.42  
2533.53 	104.73  	171.34  
2570.03 	104.70  	164.33  
2607.05 	104.69  	157.34  
2644.60 	104.71  	150.30  
2682.70 	104.75  	143.12  
2721.34 	104.81  	135.74  
2760.54 	104.88  	128.11  
2800.30 	104.93  	120.21  
2840.64 	104.97  	112.08  
2881.56 	104.98  	103.79  
2923.07 	104.96  	95.40   
2965.17 	104.93  	87.00   
3007.88 	104.89  	78.60   
3051.21 	104.86  	70.20   
3095.16 	104.85  	61.74   
3139.75 	104.86  	53.14   
3184.97 	104.88  	44.31   
3230.85 	104.92  	35.18   
3277.39 	104.94  	25.77   
3324.60 	104.95  	16.11   
3372.49 	104.93  	6.32    
3421.07 	104.89  	-3.48   
3470.35 	104.84  	-13.21  
3520.33 	104.81  	-22.85  
3571.04 	104.79  	-32.46  
3622.48 	104.81  	-42.15  
3674.66 	104.86  	-52.04  
3727.59 	104.91  	-62.24  
3781.29 	104.96  	-72.76  
3835.76 	104.98  	-83.53  
3891.01 	104.97  	-94.44  
3947.06 	104.94  	-105.40 
4003.91 	104.91  	-116.36 
4061.59 	104.89  	-127.38 
4120.09 	104.90  	-138.59 
4179.44 	104.92  	-150.10 
4239.64 	104.94  	-161.97 
4300.71 	104.95  	-174.14 
4362.66 	104.92  	173.54  
4425.50 	104.88  	161.23  
4489.25 	104.85  	148.98  
4553.92 	104.84  	136.73  
4619.51 	104.87  	124.32  
4686.06 	104.92  	111.58  
4753.56 	104.97  	98.47   
4822.03 	104.98  	85.07   
4891.49 	104.96  	71.54   
4961.95 	104.93  	57.99   
5033.42 	104.91  	44.37   
5105.93 	104.92  	30.53   
5179.47 	104.94  	16.30   
5254.08 	104.95  	1.68    
5329.77 	104.93  	-13.18  
5406.54 	104.89  	-28.07  
5484.42 	104.87  	-42.93  
5563.42 	104.89  	-57.90  
5643.56 	104.93  	-73.19  
5724.85 	104.97  	-88.90  
5807.31 	104.97  	-104.94 
5890.96 	104.95  	-121.09 
5975.82 	104.92  	-137.27 
6061.90 	104.92  	-153.65 
6149.22 	104.94  	-170.43 
6237.79 	104.94  	172.35  
6327.65 	104.92  	154.89  
6418.79 	104.89  	137.41  
6511.25 	104.90  	119.86  
6605.04 	104.93  	101.98  
6700.19 	104.97  	83.63   
6796.70 	104.97  	64.94   
6894.60 	104.94  	46.16   
6993.92 	104.92  	27.30   
7094.66 	104.94  	8.07    
7196.86 	104.94  	-11.66  
7300.52 	104.92  	-31.69  
7405.68 	104.90  	-51.80  
7512.36 	104.92  	-72.07  
7620.57 	104.96  	-92.80  
7730.34 	104.97  	-114.01 
7841.69 	104.95  	-135.40 
7954.65 	104.93  	-156.86 
8069.23 	104.94  	-178.69 
8185.47 	104.94  	158.94  
8303.38 	104.92  	136.27  
8422.98 	104.91  	113.49  
8544.31 	104.95  	90.35   
8667.39 	104.97  	66.64   
8792.24 	104.95  	42.64   
8918.88 	104.93  	18.57   
9047.36 	104.94  	-5.88   
9177.68 	104.94  	-30.91  
9309.88 	104.92  	-56.22  
9443.98 	104.93  	-81.75  
9580.02 	104.96  	-107.82 
9718.02 	104.96  	-134.39 
9858.00 	104.93  	-161.06 
10000.00	104.94  	171.97  
10144.05	104.94  	144.38  
10290.17	104.92  	116.44  
10438.39	104.94  	88.20   
10588.75	104.97  	59.33   
10741.28	104.95  	30.07   
10896.00	104.93  	0.70    
11052.95	104.94  	-29.22  
11212.16	104.93  	-59.68  
11373.67	104.94  	-90.46  
11537.50	104.97  	-121.86 
11703.69	104.95  	-153.74 
11872.28	104.93  	174.26  
12043.30	104.94  	141.67  
12216.77	104.93  	108.52  
12392.75	104.95  	74.96   
12571.26	104.96  	40.69   
12752.35	104.93  	6.14    
12936.04	104.94  	-28.74  
13122.37	104.94  	-64.33  
13311.40	104.94  	-100.37 
13503.14	104.96  	-137.12 
13697.65	104.94  	-174.29 
13894.95	104.94  	148.26  
14095.11	104.94  	110.06  
14298.14	104.95  	71.35   
14504.10	104.96  	31.87   
14713.02	104.93  	-7.96   
14924.96	104.94  	-48.23  
15139.94	104.94  	-89.25  
15358.03	104.96  	-130.90 
15579.25	104.94  	-173.26 
15803.66	104.94  	144.13  
16031.31	104.94  	100.73  
16262.23	104.95  	56.68   
16496.48	104.95  	11.82   
16734.10	104.93  	-33.34  
16975.15	104.95  	-79.27  
17219.67	104.95  	-125.90 
17467.71	104.95  	-173.38 
17719.33	104.94  	138.80  
17974.56	104.95  	90.16   
18233.48	104.95  	40.77   
18496.12	104.94  	-9.45   
18762.55	104.94  	-60.07  
19032.82	104.95  	-111.61 
19306.98	104.95  	-163.98 
19585.09	104.93  	143.04  
19867.20	104.95  	89.32   
20000.00	104.95  	64.00   
